File: Structure_seq_analysis/Shapemapper_out/Eco_invivo_combined_Ser-TGA-1-1_profile.txt
Nucleotide	Sequence	Modified_mutations	Modified_read_depth	Modified_effective_depth	Modified_rate	Modified_off_target_mapped_depth	Modified_low_mapq_mapped_depth	Modified_mapped_depth	Untreated_mutations	Untreated_read_depth	Untreated_effective_depth	Untreated_rate	Untreated_off_target_mapped_depth	Untreated_low_mapq_mapped_depth	Untreated_mapped_depth	Denatured_mutations	Denatured_read_depth	Denatured_effective_depth	Denatured_rate	Denatured_off_target_mapped_depth	Denatured_low_mapq_mapped_depth	Denatured_mapped_depth	Reactivity_profile	Std_err	HQ_profile	HQ_stderr	Norm_profile	Norm_stderr
1	G	0	4476	4274	0.000000	0	0	4476	0	5983	5724	0.000000	0	0	5983	0	0	0	nan	0	0	0	0.000000	0.000000	0.000000	0.000000	0.000000	0.000000
3	A	29	4862	4702	0.006168	0	0	4862	9	6150	5931	0.001517	0	0	6150	0	0	0	nan	0	0	0	0.004650	0.001252	0.004650	0.001252	0.111321	0.029973
5	G	431	4916	4710	0.091507	0	0	4916	61	6165	5874	0.010385	0	0	6165	0	0	0	nan	0	0	0	0.081123	0.004604	0.081123	0.004604	1.942089	0.110220
7	G	105	5002	4705	0.022317	0	0	5002	54	6225	5878	0.009187	0	0	6225	0	0	0	nan	0	0	0	0.013130	0.002511	0.013130	0.002511	0.314333	0.060113
9	G	93	5170	4863	0.019124	0	0	5170	70	6377	5988	0.011690	0	0	6377	0	0	0	nan	0	0	0	0.007434	0.002426	0.007434	0.002426	0.177970	0.058079
11	C	82	5293	5087	0.016120	0	0	5293	66	6458	6173	0.010692	0	0	6458	0	0	0	nan	0	0	0	0.005428	0.002214	0.005428	0.002214	0.129947	0.053003
13	G	77	5369	4973	0.015484	0	0	5369	21	6546	6030	0.003483	0	0	6546	0	0	0	nan	0	0	0	0.012001	0.001921	0.012001	0.001921	0.287305	0.045989
15	G	183	5451	5052	0.036223	0	0	5451	76	6583	6096	0.012467	0	0	6583	0	0	0	nan	0	0	0	0.023756	0.003036	0.023756	0.003036	0.568720	0.072682
17	G	98	5595	5390	0.018182	0	0	5595	51	6654	6415	0.007950	0	0	6654	0	0	0	nan	0	0	0	0.010232	0.002148	0.010232	0.002148	0.244955	0.051423
19	U	149	6825	6538	0.022790	0	0	6825	246	6994	6731	0.036547	0	0	6994	0	0	0	nan	0	0	0	-0.013757	0.002986	-0.013757	0.002986	-0.329343	0.071485
21	G	176	7618	7232	0.024336	0	0	7618	45	7542	7134	0.006308	0	0	7542	0	0	0	nan	0	0	0	0.018028	0.002061	0.018028	0.002061	0.431591	0.049340
23	A	732	8024	7577	0.096608	0	0	8024	33	7638	7187	0.004592	0	0	7638	0	0	0	nan	0	0	0	0.092017	0.003659	0.092017	0.003659	2.202892	0.087597
25	G	311	8562	8141	0.038202	0	0	8562	96	7683	7320	0.013115	0	0	7683	0	0	0	nan	0	0	0	0.025087	0.002546	0.025087	0.002546	0.600584	0.060951
27	A	690	8665	8233	0.083809	0	0	8665	82	7728	7406	0.011072	0	0	7728	0	0	0	nan	0	0	0	0.072737	0.003417	0.072737	0.003417	1.741328	0.081803
29	C	70	8774	8405	0.008328	0	0	8774	81	7809	7460	0.010858	0	0	7809	0	0	0	nan	0	0	0	-0.002530	0.001564	-0.002530	0.001564	-0.060568	0.037442
31	G	348	8801	8307	0.041892	0	0	8801	77	7860	7412	0.010389	0	0	7860	0	0	0	nan	0	0	0	0.031504	0.002539	0.031504	0.002539	0.754207	0.060784
33	C	383	8882	8539	0.044853	0	0	8882	229	7991	7668	0.029864	0	0	7991	0	0	0	nan	0	0	0	0.014989	0.003024	0.014989	0.003024	0.358837	0.072395
35	U	754	9132	8694	0.086726	0	0	9132	393	8359	7978	0.049260	0	0	8359	0	0	0	nan	0	0	0	0.037466	0.004019	0.037466	0.004019	0.896938	0.096215
37	A	62	9321	8907	0.006961	0	0	9321	18	8565	8199	0.002195	0	0	8565	0	0	0	nan	0	0	0	0.004765	0.001024	0.004765	0.001024	0.114074	0.024515
39	A	401	9589	8724	0.045965	0	0	9589	13	8768	8084	0.001608	0	0	8768	0	0	0	nan	0	0	0	0.044357	0.002338	0.044357	0.002338	1.061909	0.055972
41	C	79	9801	9021	0.008757	0	0	9801	60	8790	8159	0.007354	0	0	8790	0	0	0	nan	0	0	0	0.001404	0.001368	0.001404	0.001368	0.033612	0.032750
43	G	267	9815	9191	0.029050	0	0	9815	96	8810	8300	0.011566	0	0	8810	0	0	0	nan	0	0	0	0.017484	0.002134	0.017484	0.002134	0.418568	0.051088
45	C	516	9820	9265	0.055693	0	0	9820	124	8819	8353	0.014845	0	0	8819	0	0	0	nan	0	0	0	0.040849	0.002791	0.040849	0.002791	0.977927	0.066817
47	A	419	9833	8785	0.047695	0	0	9833	72	8834	7945	0.009062	0	1	8834	0	0	0	nan	0	0	0	0.038633	0.002563	0.038633	0.002563	0.924876	0.061358
49	C	59	9836	9374	0.006294	0	0	9836	66	8840	8450	0.007811	0	1	8840	0	0	0	nan	0	0	0	-0.001517	0.001263	-0.001517	0.001263	-0.036317	0.030236
51	G	180	9837	9352	0.019247	0	0	9837	35	8837	8433	0.004150	0	1	8837	0	0	0	nan	0	0	0	0.015097	0.001597	0.015097	0.001597	0.361423	0.038232
53	A	390	9842	9592	0.040659	0	0	9842	23	8838	8626	0.002666	0	1	8838	0	0	0	nan	0	0	0	0.037993	0.002133	0.037993	0.002133	0.909554	0.051064
55	G	315	9837	9185	0.034295	0	0	9837	115	8828	8294	0.013865	0	1	8828	0	0	0	nan	0	0	0	0.020430	0.002325	0.020430	0.002325	0.489095	0.055661
57	G	408	9835	8995	0.045359	0	0	9835	71	8818	8074	0.008794	0	1	8818	0	0	0	nan	0	0	0	0.036565	0.002476	0.036565	0.002476	0.875368	0.059276
59	U	106	9851	9147	0.011588	0	0	9851	112	8829	8211	0.013640	0	2	8829	0	0	0	nan	0	0	0	-0.002052	0.001711	-0.002052	0.001711	-0.049125	0.040961
61	C	50	9889	9253	0.005404	0	0	9889	21	8842	8344	0.002517	0	2	8842	0	0	0	nan	0	0	0	0.002887	0.000941	0.002887	0.000941	0.069115	0.022528
63	G	157	9888	9513	0.016504	0	0	9888	56	8851	8498	0.006590	0	2	8851	0	0	0	nan	0	0	0	0.009914	0.001584	0.009914	0.001584	0.237342	0.037921
65	G	531	9879	9262	0.057331	0	0	9879	101	8849	8372	0.012064	0	2	8849	0	0	0	nan	0	0	0	0.045267	0.002762	0.045267	0.002762	1.083694	0.066122
67	U	180	9882	9057	0.019874	0	0	9882	153	8852	8167	0.018734	0	2	8852	0	0	0	nan	0	0	0	0.001140	0.002119	0.001140	0.002119	0.027292	0.050729
69	G	45	9875	9053	0.004971	0	0	9875	34	8847	8269	0.004112	0	2	8847	0	0	0	nan	0	0	0	0.000859	0.001023	0.000859	0.001023	0.020565	0.024491
71	A	113	9869	9156	0.012342	0	0	9869	75	8842	8176	0.009173	0	2	8842	0	0	0	nan	0	0	0	0.003168	0.001572	0.003168	0.001572	0.075842	0.037634
73	C	69	9861	9281	0.007435	0	0	9861	86	8830	8276	0.010391	0	2	8830	0	0	0	nan	0	0	0	-0.002957	0.001434	-0.002957	0.001434	-0.070791	0.034330
75	C	125	9841	8982	0.013917	0	0	9841	105	8808	7895	0.013300	0	2	8808	0	0	0	nan	0	0	0	0.000617	0.001798	0.000617	0.001798	0.014771	0.043044
77	G	229	9824	8380	0.027327	0	0	9824	91	8790	7291	0.012481	0	2	8790	0	0	0	nan	0	0	0	0.014846	0.002230	0.014846	0.002230	0.355414	0.053386
79	G	323	9816	8369	0.038595	0	0	9816	101	8782	7151	0.014124	0	2	8782	0	0	0	nan	0	0	0	0.024471	0.002566	0.024471	0.002566	0.585837	0.061430
81	U	121	9807	8988	0.013462	0	0	9807	94	8781	8102	0.011602	0	2	8781	0	0	0	nan	0	0	0	0.001860	0.001712	0.001860	0.001712	0.044529	0.040985
83	C	111	9794	8919	0.012445	0	0	9794	81	8776	8023	0.010096	0	2	8776	0	0	0	nan	0	0	0	0.002349	0.001629	0.002349	0.001629	0.056235	0.038998
85	G	574	9755	8634	0.066481	0	0	9755	165	8758	7868	0.020971	0	2	8758	0	0	0	nan	0	0	0	0.045510	0.003220	0.045510	0.003220	1.089512	0.077087
87	C	448	9720	8530	0.052521	0	0	9720	11	8752	7958	0.001382	0	2	8752	0	0	0	nan	0	0	0	0.051138	0.002516	0.051138	0.002516	1.224246	0.060233
88	A	0	9378	0	nan	0	0	9378	0	8634	0	nan	0	2	8634	0	0	0	nan	0	0	0	nan	nan	nan	nan	nan	nan