File: MaP_analysis/MaP_data_rep1/Eco_invivo_rep1_Ser-TGA-1-1_varna_colors.txt
0.000000
0.000000
0.114668
0.162841
0.850000
0.187299
0.316129
0.000000
0.110397
0.850000
0.179881
0.151444
0.368821
0.421670
0.651883
0.850000
0.209981
0.285579
0.000000
0.000000
0.487490
0.392267
0.850000
0.066966
0.556435
0.000000
0.850000
0.000000
0.000000
0.446757
0.678881
0.000000
0.255097
0.000000
0.000000
0.272946
0.123030
0.000000
0.850000
0.016882
0.035180
0.000000
0.483848
0.558188
0.850000
0.269911
0.850000
0.000000
0.000000
0.000000
0.367989
0.790176
0.850000
0.797932
0.464381
0.410610
0.840306
0.069664
0.000000
0.039452
0.050421
0.279240
0.265865
0.206969
0.850000
0.000000
0.078004
0.072834
0.036507
0.850000
0.078903
0.000000
0.000000
0.000000
0.010903
0.015421
0.389367
0.139058
0.684118
0.196201
0.048623
0.019242
0.129842
0.000000
0.850000
0.850000
0.850000
0.000000