File: MaP_analysis/MaP_data_rep1/Eco_invivo_rep1_Ser-TGA-1-1_profile.txt
Nucleotide	Sequence	Modified_mutations	Modified_read_depth	Modified_effective_depth	Modified_rate	Modified_off_target_mapped_depth	Modified_low_mapq_mapped_depth	Modified_mapped_depth	Untreated_mutations	Untreated_read_depth	Untreated_effective_depth	Untreated_rate	Untreated_off_target_mapped_depth	Untreated_low_mapq_mapped_depth	Untreated_mapped_depth	Denatured_mutations	Denatured_read_depth	Denatured_effective_depth	Denatured_rate	Denatured_off_target_mapped_depth	Denatured_low_mapq_mapped_depth	Denatured_mapped_depth	Reactivity_profile	Std_err	HQ_profile	HQ_stderr	Norm_profile	Norm_stderr
1	G	0	2074	1986	0.000000	0	0	2074	0	3177	3045	0.000000	0	0	3177	0	0	0	nan	0	0	0	0.000000	0.000000	0.000000	0.000000	0.000000	0.000000
3	A	14	2269	2198	0.006369	0	0	2269	4	3270	3154	0.001268	0	0	3270	0	0	0	nan	0	0	0	0.005101	0.001817	0.005101	0.001817	0.114668	0.040845
5	G	191	2295	2194	0.087056	0	0	2295	31	3276	3124	0.009923	0	0	3276	0	0	0	nan	0	0	0	0.077132	0.006546	0.077132	0.006546	1.733888	0.147151
7	G	50	2343	2201	0.022717	0	0	2343	27	3310	3120	0.008654	0	0	3310	0	0	0	nan	0	0	0	0.014063	0.003619	0.014063	0.003619	0.316129	0.081353
9	G	43	2436	2284	0.018827	0	0	2436	44	3377	3162	0.013915	0	0	3377	0	0	0	nan	0	0	0	0.004911	0.003556	0.004911	0.003556	0.110397	0.079937
11	C	42	2499	2404	0.017471	0	0	2499	31	3425	3274	0.009469	0	0	3425	0	0	0	nan	0	0	0	0.008002	0.003187	0.008002	0.003187	0.179881	0.071642
13	G	47	2541	2367	0.019856	0	0	2541	11	3466	3189	0.003449	0	0	3466	0	0	0	nan	0	0	0	0.016407	0.003077	0.016407	0.003077	0.368821	0.069169
15	G	99	2589	2409	0.041096	0	0	2589	39	3487	3224	0.012097	0	0	3487	0	0	0	nan	0	0	0	0.028999	0.004562	0.028999	0.004562	0.651883	0.102551
17	G	45	2658	2561	0.017571	0	0	2658	28	3522	3402	0.008230	0	0	3522	0	0	0	nan	0	0	0	0.009341	0.003046	0.009341	0.003046	0.209981	0.068473
19	U	84	3396	3256	0.025799	0	0	3396	145	3691	3554	0.040799	0	0	3691	0	0	0	nan	0	0	0	-0.015001	0.004405	-0.015001	0.004405	-0.337215	0.099022
21	G	102	3883	3699	0.027575	0	0	3883	22	3965	3736	0.005889	0	0	3965	0	0	0	nan	0	0	0	0.021686	0.003005	0.021686	0.003005	0.487490	0.067551
23	A	407	4145	3929	0.103589	0	0	4145	14	4015	3773	0.003711	0	0	4015	0	0	0	nan	0	0	0	0.099878	0.005230	0.099878	0.005230	2.245206	0.117568
25	G	158	4476	4245	0.037220	0	0	4476	48	4041	3850	0.012468	0	0	4041	0	0	0	nan	0	0	0	0.024753	0.003465	0.024753	0.003465	0.556435	0.077891
27	A	329	4531	4289	0.076708	0	0	4531	38	4065	3895	0.009756	0	0	4065	0	0	0	nan	0	0	0	0.066952	0.004515	0.066952	0.004515	1.505047	0.101495
29	C	29	4607	4414	0.006570	0	0	4607	42	4108	3921	0.010712	0	0	4108	0	0	0	nan	0	0	0	-0.004142	0.002054	-0.004142	0.002054	-0.093110	0.046173
31	G	177	4622	4351	0.040680	0	0	4622	41	4137	3912	0.010481	0	0	4137	0	0	0	nan	0	0	0	0.030200	0.003468	0.030200	0.003468	0.678881	0.077959
33	C	199	4653	4476	0.044459	0	0	4653	134	4206	4047	0.033111	0	0	4206	0	0	0	nan	0	0	0	0.011348	0.004256	0.011348	0.004256	0.255097	0.095673
35	U	391	4750	4518	0.086543	0	0	4750	211	4385	4186	0.050406	0	0	4385	0	0	0	nan	0	0	0	0.036137	0.005585	nan	nan	nan	nan
37	A	36	4823	4618	0.007796	0	0	4823	10	4483	4305	0.002323	0	0	4483	0	0	0	nan	0	0	0	0.005473	0.001493	0.005473	0.001493	0.123030	0.033562
39	A	214	4922	4468	0.047896	0	0	4922	7	4567	4217	0.001660	0	0	4567	0	0	0	nan	0	0	0	0.046236	0.003334	0.046236	0.003334	1.039362	0.074947
41	C	42	5042	4622	0.009087	0	0	5042	32	4576	4254	0.007522	0	0	4576	0	0	0	nan	0	0	0	0.001565	0.001932	0.001565	0.001932	0.035180	0.043430
43	G	154	5045	4720	0.032627	0	0	5045	48	4586	4323	0.011103	0	0	4586	0	0	0	nan	0	0	0	0.021524	0.003079	0.021524	0.003079	0.483848	0.069214
45	C	263	5047	4749	0.055380	0	0	5047	53	4592	4354	0.012173	0	0	4592	0	0	0	nan	0	0	0	0.043207	0.003802	0.043207	0.003802	0.971271	0.085467
47	A	217	5051	4498	0.048244	0	0	5051	34	4598	4135	0.008222	0	0	4598	0	0	0	nan	0	0	0	0.040021	0.003566	0.040021	0.003566	0.899652	0.080162
49	C	28	5053	4799	0.005835	0	0	5053	39	4598	4391	0.008882	0	0	4598	0	0	0	nan	0	0	0	-0.003047	0.001800	-0.003047	0.001800	-0.068495	0.040463
51	G	95	5054	4802	0.019783	0	0	5054	15	4597	4395	0.003413	0	0	4597	0	0	0	nan	0	0	0	0.016370	0.002213	0.016370	0.002213	0.367989	0.049747
53	A	201	5056	4920	0.040854	0	0	5056	7	4597	4494	0.001558	0	0	4597	0	0	0	nan	0	0	0	0.039296	0.002941	0.039296	0.002941	0.883354	0.066112
55	G	158	5057	4707	0.033567	0	0	5057	56	4592	4338	0.012909	0	0	4592	0	0	0	nan	0	0	0	0.020658	0.003179	0.020658	0.003179	0.464381	0.071462
57	G	212	5056	4619	0.045897	0	0	5056	36	4588	4227	0.008517	0	0	4588	0	0	0	nan	0	0	0	0.037381	0.003457	0.037381	0.003457	0.840306	0.077712
59	U	56	5061	4690	0.011940	0	0	5061	54	4590	4267	0.012655	0	1	4590	0	0	0	nan	0	0	0	-0.000715	0.002348	-0.000715	0.002348	-0.016073	0.052782
61	C	28	5065	4722	0.005930	0	0	5065	16	4592	4340	0.003687	0	1	4592	0	0	0	nan	0	0	0	0.002243	0.001451	0.002243	0.001451	0.050421	0.032618
63	G	94	5063	4867	0.019314	0	0	5063	33	4594	4408	0.007486	0	1	4594	0	0	0	nan	0	0	0	0.011827	0.002380	0.011827	0.002380	0.265865	0.053501
65	G	315	5060	4735	0.066526	0	0	5060	51	4591	4344	0.011740	0	1	4591	0	0	0	nan	0	0	0	0.054786	0.004093	0.054786	0.004093	1.231561	0.092009
67	U	97	5063	4626	0.020968	0	0	5063	74	4590	4229	0.017498	0	1	4590	0	0	0	nan	0	0	0	0.003470	0.002945	0.003470	0.002945	0.078004	0.066202
69	G	27	5059	4613	0.005853	0	0	5059	18	4585	4256	0.004229	0	1	4585	0	0	0	nan	0	0	0	0.001624	0.001504	0.001624	0.001504	0.036507	0.033809
71	A	51	5055	4698	0.010856	0	0	5055	31	4582	4220	0.007346	0	1	4582	0	0	0	nan	0	0	0	0.003510	0.002013	0.003510	0.002013	0.078903	0.045251
73	C	36	5049	4751	0.007577	0	0	5049	50	4577	4293	0.011647	0	1	4577	0	0	0	nan	0	0	0	-0.004070	0.002076	-0.004070	0.002076	-0.091492	0.046667
75	C	60	5040	4624	0.012976	0	0	5040	51	4563	4083	0.012491	0	1	4563	0	0	0	nan	0	0	0	0.000485	0.002422	0.000485	0.002422	0.010903	0.054445
77	G	127	5029	4306	0.029494	0	0	5029	46	4557	3779	0.012173	0	1	4557	0	0	0	nan	0	0	0	0.017321	0.003173	0.017321	0.003173	0.389367	0.071327
79	G	192	5025	4295	0.044703	0	0	5025	53	4555	3714	0.014270	0	1	4555	0	0	0	nan	0	0	0	0.030433	0.003775	0.030433	0.003775	0.684118	0.084860
81	U	61	5020	4579	0.013322	0	0	5020	47	4554	4212	0.011159	0	1	4554	0	0	0	nan	0	0	0	0.002163	0.002358	0.002163	0.002358	0.048623	0.053007
83	C	60	5013	4545	0.013201	0	0	5013	31	4551	4175	0.007425	0	1	4551	0	0	0	nan	0	0	0	0.005776	0.002164	0.005776	0.002164	0.129842	0.048646
85	G	309	4998	4400	0.070227	0	0	4998	79	4546	4107	0.019235	0	1	4546	0	0	0	nan	0	0	0	0.050992	0.004544	0.050992	0.004544	1.146274	0.102147
87	C	240	4983	4333	0.055389	0	0	4983	4	4544	4126	0.000969	0	1	4544	0	0	0	nan	0	0	0	0.054419	0.003608	0.054419	0.003608	1.223311	0.081106
88	A	0	4796	0	nan	0	0	4796	0	4485	0	nan	0	1	4485	0	0	0	nan	0	0	0	nan	nan	nan	nan	nan	nan