File: MaP_analysis/MaP_data_rep2/Eco_invivo_rep2_Ser-TGA-1-1_varna_colors.txt
0.000000
0.000000
0.104117
0.106230
0.850000
0.000000
0.302537
0.000000
0.253137
0.850000
0.070472
0.175161
0.198594
0.509704
0.469622
0.738364
0.275849
0.212484
0.000000
0.000000
0.352285
0.279726
0.850000
0.040181
0.632110
0.030962
0.850000
0.000000
0.000000
0.394329
0.818527
0.000000
0.473399
0.000000
0.850000
0.336183
0.099595
0.000000
0.850000
0.011654
0.030838
0.000000
0.328132
0.627413
0.850000
0.132271
0.850000
0.000000
0.003081
0.007330
0.341128
0.850000
0.850000
0.850000
0.500609
0.365554
0.850000
0.000000
0.000000
0.114330
0.089630
0.267922
0.197227
0.254852
0.850000
0.000000
0.000000
0.000000
0.001665
0.850000
0.069205
0.000000
0.000000
0.000000
0.018612
0.006635
0.303755
0.083965
0.451979
0.095694
0.037920
0.000000
0.000000
0.000000
0.850000
0.850000
0.850000
0.000000