File: MaP_analysis/MaP_data_rep2/Eco_invivo_rep2_Ser-TGA-1-1_profile.txt
Nucleotide	Sequence	Modified_mutations	Modified_read_depth	Modified_effective_depth	Modified_rate	Modified_off_target_mapped_depth	Modified_low_mapq_mapped_depth	Modified_mapped_depth	Untreated_mutations	Untreated_read_depth	Untreated_effective_depth	Untreated_rate	Untreated_off_target_mapped_depth	Untreated_low_mapq_mapped_depth	Untreated_mapped_depth	Denatured_mutations	Denatured_read_depth	Denatured_effective_depth	Denatured_rate	Denatured_off_target_mapped_depth	Denatured_low_mapq_mapped_depth	Denatured_mapped_depth	Reactivity_profile	Std_err	HQ_profile	HQ_stderr	Norm_profile	Norm_stderr
1	G	0	2402	2288	0.000000	0	0	2402	0	2806	2679	0.000000	0	0	2806	0	0	0	nan	0	0	0	0.000000	0.000000	0.000000	0.000000	0.000000	0.000000
3	A	15	2593	2504	0.005990	0	0	2593	5	2880	2777	0.001801	0	0	2880	0	0	0	nan	0	0	0	0.004190	0.001744	0.004190	0.001744	0.104117	0.043337
5	G	240	2621	2516	0.095390	0	0	2621	30	2889	2750	0.010909	0	0	2889	0	0	0	nan	0	0	0	0.084480	0.006471	0.084480	0.006471	2.099247	0.160798
7	G	55	2659	2504	0.021965	0	0	2659	27	2915	2758	0.009790	0	0	2915	0	0	0	nan	0	0	0	0.012175	0.003510	0.012175	0.003510	0.302537	0.087220
9	G	50	2734	2579	0.019387	0	0	2734	26	3000	2826	0.009200	0	0	3000	0	0	0	nan	0	0	0	0.010187	0.003282	0.010187	0.003282	0.253137	0.081555
11	C	40	2794	2683	0.014909	0	0	2794	35	3033	2899	0.012073	0	0	3033	0	0	0	nan	0	0	0	0.002836	0.003118	0.002836	0.003118	0.070472	0.077479
13	G	30	2828	2606	0.011512	0	0	2828	10	3080	2841	0.003520	0	0	3080	0	0	0	nan	0	0	0	0.007992	0.002378	0.007992	0.002378	0.198594	0.059091
15	G	84	2862	2643	0.031782	0	0	2862	37	3096	2872	0.012883	0	0	3096	0	0	0	nan	0	0	0	0.018899	0.004063	0.018899	0.004063	0.469622	0.100962
17	G	53	2937	2829	0.018735	0	0	2937	23	3132	3013	0.007634	0	0	3132	0	0	0	nan	0	0	0	0.011101	0.003026	0.011101	0.003026	0.275849	0.075193
19	U	65	3429	3282	0.019805	0	0	3429	101	3303	3177	0.031791	0	0	3303	0	0	0	nan	0	0	0	-0.011986	0.004005	-0.011986	0.004005	-0.297841	0.099520
21	G	74	3735	3533	0.020945	0	0	3735	23	3577	3398	0.006769	0	0	3577	0	0	0	nan	0	0	0	0.014177	0.002814	0.014177	0.002814	0.352285	0.069925
23	A	325	3879	3648	0.089090	0	0	3879	19	3623	3414	0.005565	0	0	3623	0	0	0	nan	0	0	0	0.083525	0.005104	0.083525	0.005104	2.075516	0.126830
25	G	153	4086	3896	0.039271	0	0	4086	48	3642	3470	0.013833	0	0	3642	0	0	0	nan	0	0	0	0.025438	0.003751	0.025438	0.003751	0.632110	0.093209
27	A	361	4134	3944	0.091531	0	0	4134	44	3663	3511	0.012532	0	0	3663	0	0	0	nan	0	0	0	0.078999	0.005175	0.078999	0.005175	1.963049	0.128594
29	C	41	4167	3991	0.010273	0	0	4167	39	3701	3539	0.011020	0	0	3701	0	0	0	nan	0	0	0	-0.000747	0.002385	-0.000747	0.002385	-0.018562	0.059265
31	G	171	4179	3956	0.043225	0	0	4179	36	3723	3500	0.010286	0	0	3723	0	0	0	nan	0	0	0	0.032940	0.003724	0.032940	0.003724	0.818527	0.092538
33	C	184	4229	4063	0.045287	0	0	4229	95	3785	3621	0.026236	0	0	3785	0	0	0	nan	0	0	0	0.019051	0.004289	0.019051	0.004289	0.473399	0.106578
35	U	363	4382	4176	0.086925	0	0	4382	182	3974	3792	0.047996	0	0	3974	0	0	0	nan	0	0	0	0.038930	0.005786	0.038930	0.005786	0.967373	0.143777
37	A	26	4498	4289	0.006062	0	0	4498	8	4082	3894	0.002054	0	0	4082	0	0	0	nan	0	0	0	0.004008	0.001393	0.004008	0.001393	0.099595	0.034615
39	A	187	4667	4256	0.043938	0	0	4667	6	4201	3867	0.001552	0	0	4201	0	0	0	nan	0	0	0	0.042386	0.003275	0.042386	0.003275	1.053251	0.081381
41	C	37	4759	4399	0.008411	0	0	4759	28	4214	3905	0.007170	0	0	4214	0	0	0	nan	0	0	0	0.001241	0.001936	0.001241	0.001936	0.030838	0.048108
43	G	113	4770	4471	0.025274	0	0	4770	48	4224	3977	0.012069	0	0	4224	0	0	0	nan	0	0	0	0.013205	0.002947	0.013205	0.002947	0.328132	0.073230
45	C	253	4773	4516	0.056023	0	0	4773	71	4227	3999	0.017754	0	0	4227	0	0	0	nan	0	0	0	0.038269	0.004104	0.038269	0.004104	0.950948	0.101980
47	A	202	4782	4287	0.047119	0	0	4782	38	4236	3810	0.009974	0	1	4236	0	0	0	nan	0	0	0	0.037145	0.003689	0.037145	0.003689	0.923018	0.091668
49	C	31	4783	4575	0.006776	0	0	4783	27	4242	4059	0.006652	0	1	4242	0	0	0	nan	0	0	0	0.000124	0.001766	0.000124	0.001766	0.003081	0.043883
51	G	85	4783	4550	0.018681	0	0	4783	20	4240	4038	0.004953	0	1	4240	0	0	0	nan	0	0	0	0.013728	0.002309	0.013728	0.002309	0.341128	0.057376
53	A	189	4786	4672	0.040454	0	0	4786	16	4241	4132	0.003872	0	1	4241	0	0	0	nan	0	0	0	0.036582	0.003098	0.036582	0.003098	0.909028	0.076982
55	G	157	4780	4478	0.035060	0	0	4780	59	4236	3956	0.014914	0	1	4236	0	0	0	nan	0	0	0	0.020146	0.003406	0.020146	0.003406	0.500609	0.084636
57	G	196	4779	4376	0.044790	0	0	4779	35	4230	3847	0.009098	0	1	4230	0	0	0	nan	0	0	0	0.035692	0.003550	0.035692	0.003550	0.886912	0.088214
59	U	50	4790	4457	0.011218	0	0	4790	58	4239	3944	0.014706	0	1	4239	0	0	0	nan	0	0	0	-0.003488	0.002499	-0.003488	0.002499	-0.086673	0.062098
61	C	22	4824	4531	0.004855	0	0	4824	5	4250	4004	0.001249	0	1	4250	0	0	0	nan	0	0	0	0.003607	0.001176	0.003607	0.001176	0.089630	0.029222
63	G	63	4825	4646	0.013560	0	0	4825	23	4257	4090	0.005623	0	1	4257	0	0	0	nan	0	0	0	0.007937	0.002072	0.007937	0.002072	0.197227	0.051487
65	G	216	4819	4527	0.047714	0	0	4819	50	4258	4028	0.012413	0	1	4258	0	0	0	nan	0	0	0	0.035301	0.003691	0.035301	0.003691	0.877196	0.091718
67	U	83	4819	4431	0.018732	0	0	4819	79	4262	3938	0.020061	0	1	4262	0	0	0	nan	0	0	0	-0.001329	0.003053	-0.001329	0.003053	-0.033024	0.075864
69	G	18	4816	4440	0.004054	0	0	4816	16	4262	4013	0.003987	0	1	4262	0	0	0	nan	0	0	0	0.000067	0.001381	0.000067	0.001381	0.001665	0.034317
71	A	62	4814	4458	0.013908	0	0	4814	44	4260	3956	0.011122	0	1	4260	0	0	0	nan	0	0	0	0.002785	0.002435	0.002785	0.002435	0.069205	0.060507
73	C	33	4812	4530	0.007285	0	0	4812	36	4253	3983	0.009038	0	1	4253	0	0	0	nan	0	0	0	-0.001754	0.001969	-0.001754	0.001969	-0.043585	0.048928
75	C	65	4801	4358	0.014915	0	0	4801	54	4245	3812	0.014166	0	1	4245	0	0	0	nan	0	0	0	0.000749	0.002672	0.000749	0.002672	0.018612	0.066397
77	G	102	4795	4074	0.025037	0	0	4795	45	4233	3512	0.012813	0	1	4233	0	0	0	nan	0	0	0	0.012224	0.003130	0.012224	0.003130	0.303755	0.077778
79	G	131	4791	4074	0.032155	0	0	4791	48	4227	3437	0.013966	0	1	4227	0	0	0	nan	0	0	0	0.018189	0.003458	0.018189	0.003458	0.451979	0.085928
81	U	60	4787	4409	0.013609	0	0	4787	47	4227	3890	0.012082	0	1	4227	0	0	0	nan	0	0	0	0.001526	0.002488	0.001526	0.002488	0.037920	0.061824
83	C	51	4781	4374	0.011660	0	0	4781	50	4225	3848	0.012994	0	1	4225	0	0	0	nan	0	0	0	-0.001334	0.002458	-0.001334	0.002458	-0.033149	0.061079
85	G	265	4757	4234	0.062589	0	0	4757	86	4212	3761	0.022866	0	1	4212	0	0	0	nan	0	0	0	0.039722	0.004568	0.039722	0.004568	0.987054	0.113510
87	C	208	4737	4197	0.049559	0	0	4737	7	4208	3832	0.001827	0	1	4208	0	0	0	nan	0	0	0	0.047732	0.003505	0.047732	0.003505	1.186094	0.087096
88	A	0	4582	0	nan	0	0	4582	0	4149	0	nan	0	1	4149	0	0	0	nan	0	0	0	nan	nan	nan	nan	nan	nan