File: Structure_seq_analysis/MaP_combined/Eco_invivo_combined_Ser-TGA-1-1_ribosketch_colors.txt
0.000000
0.000000
0.111321
0.137655
0.850000
0.040028
0.314333
0.000000
0.177970
0.850000
0.129947
0.162314
0.287305
0.468315
0.568720
0.850000
0.244955
0.247804
0.000000
0.000000
0.431591
0.346532
0.850000
0.055900
0.600584
0.000000
0.850000
0.000000
0.000000
0.430107
0.754207
0.000000
0.358837
0.000000
0.850000
0.306289
0.114074
0.000000
0.850000
0.014795
0.033612
0.000000
0.418568
0.599555
0.850000
0.209859
0.850000
0.000000
0.000000
0.000048
0.361423
0.850000
0.850000
0.850000
0.489095
0.395609
0.850000
0.000000
0.000000
0.075627
0.069115
0.278136
0.237342
0.232554
0.850000
0.000000
0.027292
0.033157
0.020565
0.850000
0.075842
0.000000
0.000000
0.000000
0.014771
0.011659
0.355414
0.115343
0.585837
0.152115
0.044529
0.000000
0.056235
0.000000
0.850000
0.850000
0.850000
0.000000